File: Chapter 6/data/raw_cycling_data/JCDREAM_BatteryCorpus_0cycles_Cell51 - 001.csv
Cyc#,Step,TestTime(s),StepTime(s),Capacity(Ah),Current(A),Voltage(V),DPT Time
0,1,0.0,0.0,0.0,0.0,3.701,8/8/2020 18:52
0,3,548.68,480.15,0.1,0.75,3.826,8/8/2020 19:01
0,3,1728.68,1660.15,0.346,0.75,3.978,8/8/2020 19:21
0,3,2908.68,2840.15,0.591,0.75,4.104,8/8/2020 19:41
0,4,4075.1,350.03,0.806,0.277,4.2,8/8/2020 20:00
0,6,5228.43,640.06,0.133,-0.75,4.048,8/8/2020 20:19
0,6,6408.43,1820.06,0.379,-0.75,3.917,8/8/2020 20:39
0,6,7588.43,3000.06,0.625,-0.75,3.787,8/8/2020 20:59
0,6,8768.43,4180.06,0.871,-0.75,3.624,8/8/2020 21:18
0,6,9948.43,5360.06,1.117,-0.75,3.527,8/8/2020 21:38
0,6,11128.43,6540.06,1.362,-0.75,3.358,8/8/2020 21:58
0,3,12282.69,800.03,0.167,0.75,3.561,8/8/2020 22:17
0,3,13462.69,1980.03,0.412,0.75,3.678,8/8/2020 22:37
0,3,14642.69,3160.03,0.658,0.75,3.793,8/8/2020 22:56
0,3,15822.69,4340.03,0.904,0.75,3.95,8/8/2020 23:16
0,3,17002.69,5520.03,1.15,0.75,4.077,8/8/2020 23:36
0,4,18169.83,100.03,1.39,0.529,4.202,8/8/2020 23:55
0,6,19319.28,430.01,0.089,-0.75,4.078,8/9/2020 0:14
0,6,20499.28,1610.01,0.335,-0.75,3.943,8/9/2020 0:34
0,6,21679.28,2790.01,0.581,-0.75,3.81,8/9/2020 0:54
0,6,22859.28,3970.01,0.827,-0.75,3.651,8/9/2020 1:13
0,6,24039.28,5150.01,1.073,-0.75,3.548,8/9/2020 1:33
0,6,25219.28,6330.01,1.319,-0.75,3.419,8/9/2020 1:53
0,3,26372.46,580.01,0.121,0.75,3.541,8/9/2020 2:12
0,3,27552.46,1760.01,0.367,0.75,3.665,8/9/2020 2:31
0,3,28732.46,2940.01,0.612,0.75,3.759,8/9/2020 2:51
0,3,29912.46,4120.01,0.858,0.75,3.926,8/9/2020 3:11
0,3,31092.46,5300.01,1.104,0.75,4.05,8/9/2020 3:30
0,3,32272.46,6480.01,1.35,0.75,4.183,8/9/2020 3:50
0,6,33406.5,210.01,0.044,-0.75,4.116,8/9/2020 4:09
0,6,34586.5,1390.01,0.289,-0.75,3.969,8/9/2020 4:29
0,6,35766.5,2570.01,0.535,-0.75,3.833,8/9/2020 4:48
0,6,36946.5,3750.01,0.781,-0.75,3.682,8/9/2020 5:08
0,6,38126.5,4930.01,1.027,-0.75,3.566,8/9/2020 5:28
0,6,39306.5,6110.01,1.273,-0.75,3.448,8/9/2020 5:47
0,3,40456.15,350.01,0.073,0.75,3.519,8/9/2020 6:06
0,3,41636.15,1530.01,0.319,0.75,3.644,8/9/2020 6:26
0,3,42816.15,2710.01,0.564,0.75,3.73,8/9/2020 6:46
0,3,43996.15,3890.01,0.81,0.75,3.898,8/9/2020 7:05
0,3,45176.15,5070.01,1.056,0.75,4.022,8/9/2020 7:25
0,3,46356.15,6250.01,1.302,0.75,4.151,8/9/2020 7:45
0,5,47502.86,0.01,0.0,0.0,4.198,8/9/2020 8:04
0,6,48667.86,1160.01,0.242,-0.75,3.994,8/9/2020 8:23
0,6,49847.86,2340.01,0.487,-0.75,3.858,8/9/2020 8:43
0,6,51027.86,3520.01,0.733,-0.75,3.717,8/9/2020 9:03
0,6,52207.86,4700.01,0.979,-0.75,3.584,8/9/2020 9:22
0,6,53387.86,5880.01,1.225,-0.75,3.471,8/9/2020 9:42
0,3,54541.72,120.01,0.025,0.75,3.339,8/9/2020 10:01
0,3,55721.72,1300.01,0.271,0.75,3.616,8/9/2020 10:21
0,3,56901.72,2480.01,0.517,0.75,3.708,8/9/2020 10:41
0,3,58081.72,3660.01,0.762,0.75,3.865,8/9/2020 11:00
0,3,59261.72,4840.01,1.008,0.75,3.996,8/9/2020 11:20
0,3,60441.72,6020.01,1.254,0.75,4.124,8/9/2020 11:40
0,4,61605.23,570.03,1.433,0.154,4.2,8/9/2020 11:59
0,6,62759.82,940.01,0.196,-0.75,4.016,8/9/2020 12:18
0,6,63939.82,2120.01,0.442,-0.75,3.884,8/9/2020 12:38
0,6,65119.82,3300.01,0.687,-0.75,3.75,8/9/2020 12:58
0,6,66299.82,4480.01,0.933,-0.75,3.601,8/9/2020 13:17
0,6,67479.82,5660.01,1.179,-0.75,3.5,8/9/2020 13:37
0,6,68659.82,6840.01,1.425,-0.75,3.025,8/9/2020 13:57
1,12,72781.85,440.05,0.018,-0.15,2.731,8/9/2020 15:05
1,14,73931.25,1060.06,0.022,0.075,3.212,8/9/2020 15:24
1,14,75111.25,2240.06,0.047,0.075,3.362,8/9/2020 15:44
1,14,76291.25,3420.06,0.071,0.075,3.452,8/9/2020 16:04
1,14,77471.25,4600.06,0.096,0.075,3.491,8/9/2020 16:23
1,14,78651.25,5780.06,0.12,0.075,3.499,8/9/2020 16:43
1,14,79831.25,6960.06,0.145,0.075,3.507,8/9/2020 17:03
1,14,81011.25,8140.06,0.17,0.075,3.515,8/9/2020 17:22
1,14,82191.25,9320.06,0.194,0.075,3.524,8/9/2020 17:42
1,14,83371.25,10500.06,0.219,0.075,3.537,8/9/2020 18:02
1,14,84551.25,11680.06,0.243,0.075,3.553,8/9/2020 18:21
1,14,85731.25,12860.06,0.268,0.075,3.568,8/9/2020 18:41
1,14,86911.25,14040.06,0.292,0.075,3.585,8/9/2020 19:01
1,14,88091.25,15220.06,0.317,0.075,3.598,8/9/2020 19:20
1,14,89271.25,16400.06,0.342,0.075,3.613,8/9/2020 19:40
1,14,90451.25,17580.06,0.366,0.075,3.625,8/9/2020 20:00
1,14,91631.25,18760.06,0.391,0.075,3.633,8/9/2020 20:19
1,14,92811.25,19940.06,0.415,0.075,3.64,8/9/2020 20:39
1,14,93991.25,21120.06,0.44,0.075,3.646,8/9/2020 20:59
1,14,95171.25,22300.06,0.465,0.075,3.653,8/9/2020 21:18
1,14,96351.25,23480.06,0.489,0.075,3.66,8/9/2020 21:38
1,14,97531.25,24660.06,0.514,0.075,3.668,8/9/2020 21:58
1,14,98711.25,25840.06,0.538,0.075,3.676,8/9/2020 22:17
1,14,99891.25,27020.06,0.563,0.075,3.686,8/9/2020 22:37
1,14,101071.25,28200.06,0.587,0.075,3.696,8/9/2020 22:57
1,14,102251.25,29380.06,0.612,0.075,3.708,8/9/2020 23:16
1,14,103431.25,30560.06,0.637,0.075,3.723,8/9/2020 23:36
1,14,104611.25,31740.06,0.661,0.075,3.738,8/9/2020 23:56
1,14,105791.25,32920.06,0.686,0.075,3.755,8/10/2020 0:15
1,14,106971.25,34100.06,0.71,0.075,3.772,8/10/2020 0:35
1,14,108151.25,35280.06,0.735,0.075,3.79,8/10/2020 0:55
1,14,109331.25,36460.06,0.759,0.075,3.806,8/10/2020 1:14
1,14,110511.25,37640.06,0.784,0.075,3.822,8/10/2020 1:34
1,14,111691.25,38820.06,0.809,0.075,3.836,8/10/2020 1:54
1,14,112871.25,40000.06,0.833,0.075,3.85,8/10/2020 2:13
1,14,114051.25,41180.06,0.858,0.075,3.865,8/10/2020 2:33
1,14,115231.25,42360.06,0.882,0.075,3.881,8/10/2020 2:53
1,14,116411.25,43540.06,0.907,0.075,3.901,8/10/2020 3:12
1,14,117591.25,44720.06,0.932,0.075,3.916,8/10/2020 3:32
1,14,118771.25,45900.06,0.956,0.075,3.928,8/10/2020 3:52
1,14,119951.25,47080.06,0.981,0.075,3.939,8/10/2020 4:11
1,14,121131.25,48260.06,1.005,0.075,3.95,8/10/2020 4:31
1,14,122311.25,49440.06,1.03,0.075,3.961,8/10/2020 4:51
1,14,123491.25,50620.06,1.054,0.075,3.973,8/10/2020 5:10
1,14,124671.25,51800.06,1.079,0.075,3.985,8/10/2020 5:30
1,14,125851.25,52980.06,1.104,0.075,3.998,8/10/2020 5:50
1,14,127031.25,54160.06,1.128,0.075,4.011,8/10/2020 6:09
1,14,128211.25,55340.06,1.153,0.075,4.024,8/10/2020 6:29
1,14,129391.25,56520.06,1.177,0.075,4.036,8/10/2020 6:49
1,14,130571.25,57700.06,1.202,0.075,4.047,8/10/2020 7:08
1,14,131751.25,58880.06,1.227,0.075,4.058,8/10/2020 7:28
1,14,132931.25,60060.06,1.251,0.075,4.067,8/10/2020 7:48
1,14,134111.25,61240.06,1.276,0.075,4.077,8/10/2020 8:07
1,14,135291.25,62420.06,1.3,0.075,4.087,8/10/2020 8:27
1,14,136471.25,63600.06,1.325,0.075,4.098,8/10/2020 8:47
1,14,137651.25,64780.06,1.349,0.075,4.111,8/10/2020 9:06
1,14,138831.25,65960.06,1.374,0.075,4.125,8/10/2020 9:26
1,14,140011.25,67140.06,1.399,0.075,4.14,8/10/2020 9:46
1,14,141191.25,68320.06,1.423,0.075,4.159,8/10/2020 10:05
1,14,142371.25,69500.06,1.448,0.075,4.178,8/10/2020 10:25
1,14,143551.25,70680.06,1.472,0.075,4.199,8/10/2020 10:45
1,16,144700.89,1100.06,0.023,-0.075,4.165,8/10/2020 11:04
1,16,145880.89,2280.06,0.047,-0.075,4.142,8/10/2020 11:24
1,16,147060.89,3460.06,0.072,-0.075,4.122,8/10/2020 11:43
1,16,148240.89,4640.06,0.097,-0.075,4.106,8/10/2020 12:03
1,16,149420.89,5820.06,0.121,-0.075,4.091,8/10/2020 12:23
1,16,150600.89,7000.06,0.146,-0.075,4.078,8/10/2020 12:42
1,16,151780.89,8180.06,0.17,-0.075,4.066,8/10/2020 13:02
1,16,152960.89,9360.06,0.195,-0.075,4.055,8/10/2020 13:22
1,16,154140.89,10540.06,0.22,-0.075,4.046,8/10/2020 13:41
1,16,155320.89,11720.06,0.244,-0.075,4.036,8/10/2020 14:01
1,16,156500.89,12900.06,0.269,-0.075,4.025,8/10/2020 14:21
1,16,157680.89,14080.06,0.293,-0.075,4.014,8/10/2020 14:40
1,16,158860.89,15260.06,0.318,-0.075,4.001,8/10/2020 15:00
1,16,160040.89,16440.06,0.342,-0.075,3.988,8/10/2020 15:20
1,16,161220.89,17620.06,0.367,-0.075,3.974,8/10/2020 15:39
1,16,162400.89,18800.06,0.392,-0.075,3.961,8/10/2020 15:59
1,16,163580.89,19980.06,0.416,-0.075,3.948,8/10/2020 16:19
1,16,164760.89,21160.06,0.441,-0.075,3.935,8/10/2020 16:38
1,16,165940.89,22340.06,0.465,-0.075,3.922,8/10/2020 16:58
1,16,167120.89,23520.06,0.49,-0.075,3.909,8/10/2020 17:18
1,16,168300.89,24700.06,0.515,-0.075,3.895,8/10/2020 17:37
1,16,169480.89,25880.06,0.539,-0.075,3.879,8/10/2020 17:57
1,16,170660.89,27060.06,0.564,-0.075,3.861,8/10/2020 18:17
1,16,171840.89,28240.06,0.588,-0.075,3.844,8/10/2020 18:36
1,16,173020.89,29420.06,0.613,-0.075,3.829,8/10/2020 18:56
1,16,174200.89,30600.06,0.637,-0.075,3.816,8/10/2020 19:16
1,16,175380.89,31780.06,0.662,-0.075,3.802,8/10/2020 19:35
1,16,176560.89,32960.06,0.687,-0.075,3.788,8/10/2020 19:55
1,16,177740.89,34140.06,0.711,-0.075,3.772,8/10/2020 20:15
1,16,178920.89,35320.06,0.736,-0.075,3.756,8/10/2020 20:34
1,16,180100.89,36500.06,0.76,-0.075,3.739,8/10/2020 20:54
1,16,181280.89,37680.06,0.785,-0.075,3.723,8/10/2020 21:14
1,16,182460.89,38860.06,0.809,-0.075,3.706,8/10/2020 21:33
1,16,183640.89,40040.06,0.834,-0.075,3.692,8/10/2020 21:53
1,16,184820.89,41220.06,0.859,-0.075,3.678,8/10/2020 22:13
1,16,186000.89,42400.06,0.883,-0.075,3.666,8/10/2020 22:32
1,16,187180.89,43580.06,0.908,-0.075,3.655,8/10/2020 22:52
1,16,188360.89,44760.06,0.932,-0.075,3.646,8/10/2020 23:12
1,16,189540.89,45940.06,0.957,-0.075,3.637,8/10/2020 23:31
1,16,190720.89,47120.06,0.982,-0.075,3.629,8/10/2020 23:51
1,16,191900.89,48300.06,1.006,-0.075,3.622,8/11/2020 0:11
1,16,193080.89,49480.06,1.031,-0.075,3.614,8/11/2020 0:30
1,16,194260.89,50660.06,1.055,-0.075,3.606,8/11/2020 0:50
1,16,195440.89,51840.06,1.08,-0.075,3.598,8/11/2020 1:10
1,16,196620.89,53020.06,1.104,-0.075,3.588,8/11/2020 1:29
1,16,197800.89,54200.06,1.129,-0.075,3.576,8/11/2020 1:49
1,16,198980.89,55380.06,1.154,-0.075,3.565,8/11/2020 2:09
1,16,200160.89,56560.06,1.178,-0.075,3.552,8/11/2020 2:28
1,16,201340.89,57740.06,1.203,-0.075,3.535,8/11/2020 2:48
1,16,202520.89,58920.06,1.227,-0.075,3.517,8/11/2020 3:08
1,16,203700.89,60100.06,1.252,-0.075,3.5,8/11/2020 3:27
1,16,204880.89,61280.06,1.277,-0.075,3.491,8/11/2020 3:47
1,16,206060.89,62460.06,1.301,-0.075,3.484,8/11/2020 4:07
1,16,207240.89,63640.06,1.326,-0.075,3.477,8/11/2020 4:26
1,16,208420.89,64820.06,1.35,-0.075,3.467,8/11/2020 4:46
1,16,209600.89,66000.06,1.375,-0.075,3.452,8/11/2020 5:06
1,16,210780.89,67180.06,1.399,-0.075,3.405,8/11/2020 5:25
1,16,211960.89,68360.06,1.424,-0.075,3.304,8/11/2020 5:45
1,16,213140.89,69540.06,1.449,-0.075,3.136,8/11/2020 6:05
1,17,214230.62,70629.79,1.471,0.0,2.5,8/11/2020 6:23